@MEASUREMENT_RADIUS 16 cm
# lambda : Angstroms 
# tr : transmission ([0,1]) 
# end
6225 0
6230 1.20863e-05
6235 4.40686e-05
6240 7.215e-05
6245 9.4157e-05
6250 9.51939e-05
6255 8.45461e-05
6260 8.64985e-05
6265 8.37185e-05
6270 8.22896e-05
6275 9.68143e-05
6280 0.000100038
6285 0.000100584
6290 9.93079e-05
6295 0.000109174
6300 0.000118881
6305 0.000128468
6310 0.000116894
6315 9.92825e-05
6320 7.86648e-05
6325 7.66603e-05
6330 7.77997e-05
6335 0.000107832
6340 0.000110513
6345 0.000129775
6350 0.000121327
6355 0.000132298
6360 0.000136728
6365 0.00014067
6370 0.000150064
6375 0.000139052
6380 0.000115038
6385 9.66248e-05
6390 0.000103018
6395 0.000117155
6400 0.00014141
6405 0.000137122
6410 0.000131262
6415 0.000121856
6420 0.000125505
6425 0.000155629
6430 0.000189592
6435 0.000197895
6440 0.00020583
6445 0.000224894
6450 0.00023819
6455 0.000240427
6460 0.000239423
6465 0.000243487
6470 0.000251524
6475 0.000276243
6480 0.000290701
6485 0.000311827
6490 0.000343536
6495 0.000372194
6500 0.000413149
6505 0.000445924
6510 0.000482482
6515 0.000522966
6520 0.000578891
6525 0.000648701
6530 0.000715599
6535 0.000791202
6540 0.000896441
6545 0.000987457
6550 0.00107023
6555 0.00116684
6560 0.00125603
6565 0.0013866
6570 0.00153797
6575 0.00168855
6580 0.00184215
6585 0.00202236
6590 0.0022009
6595 0.00240093
6600 0.00261219
6605 0.00285278
6610 0.00311656
6615 0.00341096
6620 0.00377028
6625 0.00419229
6630 0.0046636
6635 0.0051525
6640 0.00574944
6645 0.00645328
6650 0.00733414
6655 0.00833702
6660 0.00948599
6665 0.0108133
6670 0.0123581
6675 0.0141777
6680 0.0163042
6685 0.018794
6690 0.0216604
6695 0.0249294
6700 0.0286152
6705 0.032778
6710 0.0374821
6715 0.0427416
6720 0.048571
6725 0.0550134
6730 0.0620899
6735 0.0698959
6740 0.0785391
6745 0.0880819
6750 0.0986642
6755 0.110491
6760 0.123831
6765 0.138941
6770 0.156165
6775 0.175698
6780 0.198059
6785 0.223605
6790 0.252785
6795 0.285782
6800 0.322731
6805 0.363625
6810 0.408059
6815 0.455741
6820 0.505575
6825 0.556628
6830 0.607103
6835 0.655863
6840 0.701164
6845 0.742348
6850 0.778489
6855 0.809158
6860 0.83467
6865 0.855182
6870 0.871727
6875 0.884649
6880 0.895104
6885 0.902996
6890 0.909666
6895 0.914914
6900 0.919514
6905 0.923477
6910 0.926753
6915 0.929667
6920 0.931861
6925 0.933996
6930 0.935387
6935 0.936848
6940 0.937643
6945 0.938396
6950 0.938769
6955 0.939012
6960 0.93922
6965 0.939205
6970 0.939464
6975 0.939573
6980 0.940138
6985 0.940534
6990 0.941422
6995 0.942111
7000 0.943122
7005 0.944073
7010 0.945008
7015 0.946118
7020 0.946968
7025 0.948101
7030 0.94879
7035 0.949712
7040 0.95004
7045 0.950433
7050 0.9504
7055 0.950256
7060 0.950025
7065 0.949522
7070 0.949198
7075 0.948578
7080 0.948179
7085 0.9475
7090 0.947187
7095 0.946507
7100 0.946288
7105 0.946001
7110 0.945889
7115 0.946082
7120 0.946269
7125 0.94678
7130 0.947082
7135 0.94764
7140 0.947928
7145 0.948524
7150 0.948885
7155 0.949295
7160 0.949561
7165 0.949552
7170 0.949613
7175 0.949399
7180 0.949261
7185 0.948714
7190 0.948262
7195 0.947444
7200 0.946882
7205 0.946044
7210 0.945195
7215 0.944376
7220 0.943227
7225 0.942272
7230 0.941264
7235 0.940608
7240 0.939815
7245 0.939568
7250 0.939152
7255 0.939106
7260 0.939061
7265 0.938999
7270 0.939061
7275 0.939035
7280 0.939343
7285 0.939541
7290 0.940008
7295 0.9402
7300 0.94057
7305 0.940739
7310 0.941015
7315 0.9413
7320 0.941524
7325 0.941853
7330 0.941815
7335 0.94189
7340 0.941606
7345 0.941555
7350 0.941326
7355 0.941457
7360 0.941416
7365 0.941493
7370 0.941608
7375 0.94153
7380 0.941741
7385 0.941781
7390 0.942079
7395 0.942162
7400 0.942495
7405 0.942506
7410 0.94268
7415 0.942659
7420 0.942476
7425 0.94243
7430 0.942137
7435 0.942012
7440 0.941472
7445 0.940931
7450 0.939923
7455 0.939021
7460 0.937947
7465 0.936888
7470 0.935665
7475 0.934222
7480 0.932856
7485 0.931331
7490 0.930171
7495 0.928942
7500 0.927949
7505 0.926859
7510 0.926092
7515 0.925358
7520 0.92481
7525 0.924491
7530 0.924178
7535 0.924322
7540 0.924422
7545 0.92491
7550 0.925357
7555 0.926061
7560 0.926704
7565 0.927592
7570 0.928513
7575 0.92948
7580 0.930505
7585 0.93137
7590 0.932355
7595 0.933079
7600 0.933956
7605 0.934587
7610 0.935256
7615 0.935687
7620 0.93611
7625 0.936292
7630 0.93635
7635 0.936361
7640 0.936146
7645 0.935998
7650 0.935573
7655 0.935224
7660 0.934614
7665 0.934123
7670 0.933659
7675 0.933227
7680 0.932768
7685 0.93218
7690 0.931609
7695 0.930832
7700 0.930243
7705 0.929546
7710 0.928977
7715 0.928211
7720 0.927461
7725 0.92668
7730 0.925895
7735 0.925163
7740 0.924269
7745 0.923434
7750 0.922323
7755 0.921305
7760 0.920262
7765 0.919256
7770 0.918125
7775 0.91712
7780 0.916014
7785 0.914888
7790 0.913928
7795 0.912886
7800 0.912058
7805 0.91121
7810 0.910529
7815 0.909926
7820 0.909624
7825 0.909415
7830 0.909364
7835 0.909459
7840 0.90961
7845 0.910008
7850 0.910453
7855 0.911184
7860 0.9119
7865 0.912746
7870 0.91358
7875 0.914543
7880 0.915539
7885 0.916592
7890 0.917719
7895 0.918711
7900 0.919746
7905 0.920528
7910 0.921383
7915 0.922076
7920 0.922714
7925 0.923058
7930 0.923304
7935 0.923399
7940 0.923391
7945 0.923495
7950 0.923473
7955 0.923476
7960 0.923213
7965 0.922854
7970 0.922412
7975 0.922053
7980 0.921731
7985 0.921586
7990 0.921412
7995 0.921131
8000 0.920821
8005 0.920345
8010 0.919971
8015 0.919617
8020 0.919389
8025 0.91918
8030 0.918976
8035 0.918704
8040 0.91847
8045 0.918243
8050 0.917963
8055 0.917829
8060 0.917721
8065 0.917548
8070 0.917276
8075 0.916942
8080 0.916415
8085 0.915874
8090 0.915243
8095 0.914577
8100 0.913888
8105 0.913098
8110 0.912324
8115 0.911536
8120 0.910802
8125 0.90995
8130 0.909143
8135 0.908285
8140 0.907409
8145 0.906492
8150 0.905692
8155 0.905013
8160 0.904314
8165 0.903771
8170 0.903264
8175 0.902762
8180 0.902278
8185 0.901926
8190 0.901594
8195 0.901417
8200 0.901329
8205 0.901276
8210 0.901302
8215 0.901234
8220 0.901098
8225 0.900892
8230 0.900627
8235 0.900188
8240 0.899645
8245 0.898877
8250 0.897898
8255 0.896704
8260 0.895184
8265 0.893481
8270 0.891502
8275 0.889324
8280 0.886885
8285 0.884326
8290 0.881678
8295 0.878957
8300 0.87616
8305 0.873431
8310 0.870814
8315 0.868402
8320 0.86632
8325 0.864732
8330 0.863741
8335 0.863235
8340 0.863294
8345 0.863832
8350 0.864901
8355 0.866164
8360 0.867444
8365 0.868389
8370 0.868472
8375 0.867155
8380 0.863762
8385 0.857471
8390 0.847259
8395 0.832365
8400 0.811901
8405 0.785429
8410 0.752667
8415 0.71386
8420 0.669695
8425 0.621156
8430 0.569755
8435 0.516969
8440 0.464494
8445 0.413696
8450 0.365718
8455 0.321253
8460 0.280877
8465 0.244653
8470 0.212474
8475 0.184189
8480 0.159489
8485 0.138066
8490 0.119535
8495 0.10361
8500 0.0899421
8505 0.0782057
8510 0.0681172
8515 0.059453
8520 0.0519822
8525 0.0455505
8530 0.0399865
8535 0.0351632
8540 0.0309896
8545 0.0273501
8550 0.0241717
8555 0.0214099
8560 0.0189947
8565 0.0168695
8570 0.0150016
8575 0.0133501
8580 0.0118882
8585 0.0106074
8590 0.00946661
8595 0.00847584
8600 0.00759971
8605 0.00681685
8610 0.0061119
8615 0.00548953
8620 0.00492981
8625 0.00443442
8630 0.00400172
8635 0.00360583
8640 0.00325403
8645 0.00292986
8650 0.00264833
8655 0.00239375
8660 0.00217298
8665 0.00199676
8670 0.00182478
8675 0.00167522
8680 0.00152751
8685 0.00139463
8690 0.00127025
8695 0.00115896
8700 0.00105728
8705 0.000968822
8710 0.000898994
8715 0.000834102
8720 0.000734537
8725 0.000599716
8730 0.000428442
8735 0.000258995
8740 0.00011066
8745 7.72142e-06
