@MEASUREMENT_RADIUS 9.3 cm
# lambda : Angstroms 
# tr : transmission ([0,1]) 
# end
7885 0
7890 0.000167207
7895 0.000756632
7900 0.0014737
7905 0.00223649
7910 0.00305103
7915 0.00376596
7920 0.00402211
7925 0.00429301
7930 0.00458887
7935 0.00490699
7940 0.00525021
7945 0.00562197
7950 0.00602192
7955 0.00644985
7960 0.00694755
7965 0.00767608
7970 0.00860746
7975 0.00961844
7980 0.0106976
7985 0.0118269
7990 0.0128025
7995 0.0137396
8000 0.0147657
8005 0.0159029
8010 0.0171462
8015 0.0184913
8020 0.019946
8025 0.0215237
8030 0.0232592
8035 0.0251832
8040 0.0273108
8045 0.0296438
8050 0.0321892
8055 0.0349643
8060 0.0380204
8065 0.0414226
8070 0.0452008
8075 0.0493594
8080 0.0538894
8085 0.0588122
8090 0.0642165
8095 0.070219
8100 0.0768708
8105 0.0842132
8110 0.092255
8115 0.100982
8120 0.110432
8125 0.120828
8130 0.132323
8135 0.14493
8140 0.158614
8145 0.173383
8150 0.189237
8155 0.206363
8160 0.224956
8165 0.245048
8170 0.266526
8175 0.289214
8180 0.312908
8185 0.337703
8190 0.363858
8195 0.391308
8200 0.419734
8205 0.44888
8210 0.478458
8215 0.508093
8220 0.537948
8225 0.568032
8230 0.598027
8235 0.627421
8240 0.655959
8245 0.683411
8250 0.709726
8255 0.734931
8260 0.758873
8265 0.781238
8270 0.801642
8275 0.820006
8280 0.836438
8285 0.851071
8290 0.864019
8295 0.875326
8300 0.884943
8305 0.892828
8310 0.899205
8315 0.904295
8320 0.908255
8325 0.911226
8330 0.913334
8335 0.914665
8340 0.915353
8345 0.915535
8350 0.915334
8355 0.914869
8360 0.914226
8365 0.913466
8370 0.912665
8375 0.911892
8380 0.911178
8385 0.91055
8390 0.910033
8395 0.909651
8400 0.909439
8405 0.909397
8410 0.909528
8415 0.909834
8420 0.910313
8425 0.910929
8430 0.91169
8435 0.91259
8440 0.913626
8445 0.914774
8450 0.916025
8455 0.917364
8460 0.918739
8465 0.920158
8470 0.921618
8475 0.923099
8480 0.924599
8485 0.926094
8490 0.927567
8495 0.928977
8500 0.930322
8505 0.931595
8510 0.932795
8515 0.933897
8520 0.93491
8525 0.935811
8530 0.936576
8535 0.937219
8540 0.937751
8545 0.938154
8550 0.938431
8555 0.938595
8560 0.938641
8565 0.938561
8570 0.938367
8575 0.938053
8580 0.937623
8585 0.937076
8590 0.936445
8595 0.935724
8600 0.934903
8605 0.933999
8610 0.933016
8615 0.931978
8620 0.930884
8625 0.929736
8630 0.928539
8635 0.927308
8640 0.926028
8645 0.924701
8650 0.923376
8655 0.922056
8660 0.92073
8665 0.919409
8670 0.918097
8675 0.916794
8680 0.915507
8685 0.91426
8690 0.91304
8695 0.911857
8700 0.910705
8705 0.909597
8710 0.908542
8715 0.907564
8720 0.906629
8725 0.905754
8730 0.904937
8735 0.904166
8740 0.903437
8745 0.902765
8750 0.902175
8755 0.901631
8760 0.901137
8765 0.900706
8770 0.900336
8775 0.900022
8780 0.899768
8785 0.899563
8790 0.899423
8795 0.899329
8800 0.899287
8805 0.899288
8810 0.899353
8815 0.899455
8820 0.899603
8825 0.89978
8830 0.900004
8835 0.900248
8840 0.900523
8845 0.900824
8850 0.901149
8855 0.901497
8860 0.90186
8865 0.902237
8870 0.90263
8875 0.90303
8880 0.903432
8885 0.903846
8890 0.904265
8895 0.904684
8900 0.905086
8905 0.905482
8910 0.905865
8915 0.906234
8920 0.906578
8925 0.906902
8930 0.907208
8935 0.907485
8940 0.90772
8945 0.90792
8950 0.908095
8955 0.908248
8960 0.90836
8965 0.908438
8970 0.90849
8975 0.908496
8980 0.908451
8985 0.908361
8990 0.908229
8995 0.908053
9000 0.907842
9005 0.90759
9010 0.907298
9015 0.906954
9020 0.906574
9025 0.90615
9030 0.905688
9035 0.905202
9040 0.904676
9045 0.904114
9050 0.903514
9055 0.902886
9060 0.90222
9065 0.901519
9070 0.900797
9075 0.900055
9080 0.899289
9085 0.898498
9090 0.8977
9095 0.896881
9100 0.896049
9105 0.895196
9110 0.894329
9115 0.893441
9120 0.892543
9125 0.891648
9130 0.890756
9135 0.889855
9140 0.888951
9145 0.888054
9150 0.887164
9155 0.886264
9160 0.88538
9165 0.884513
9170 0.88366
9175 0.882809
9180 0.881979
9185 0.88119
9190 0.880413
9195 0.879665
9200 0.878936
9205 0.878234
9210 0.877554
9215 0.8769
9220 0.876283
9225 0.875693
9230 0.875134
9235 0.874596
9240 0.874086
9245 0.87361
9250 0.873173
9255 0.872771
9260 0.872417
9265 0.8721
9270 0.871815
9275 0.871563
9280 0.87135
9285 0.871184
9290 0.871063
9295 0.870985
9300 0.870953
9305 0.87096
9310 0.870997
9315 0.871075
9320 0.871192
9325 0.871349
9330 0.871534
9335 0.871761
9340 0.872024
9345 0.872326
9350 0.872663
9355 0.873052
9360 0.873491
9365 0.873965
9370 0.874473
9375 0.875007
9380 0.875577
9385 0.876179
9390 0.876804
9395 0.877469
9400 0.87816
9405 0.878879
9410 0.879616
9415 0.880373
9420 0.88117
9425 0.881991
9430 0.882833
9435 0.883679
9440 0.884547
9445 0.885429
9450 0.886319
9455 0.887222
9460 0.888142
9465 0.889084
9470 0.89004
9475 0.890999
9480 0.891957
9485 0.892918
9490 0.893887
9495 0.894855
9500 0.895823
9505 0.896795
9510 0.89777
9515 0.898737
9520 0.8997
9525 0.900664
9530 0.901615
9535 0.902549
9540 0.903469
9545 0.904388
9550 0.905301
9555 0.906183
9560 0.907045
9565 0.907898
9570 0.908732
9575 0.909545
9580 0.910336
9585 0.911119
9590 0.911878
9595 0.912614
9600 0.913323
9605 0.914014
9610 0.91468
9615 0.915323
9620 0.915936
9625 0.916521
9630 0.91708
9635 0.917603
9640 0.918102
9645 0.91857
9650 0.919008
9655 0.919412
9660 0.919782
9665 0.920119
9670 0.920417
9675 0.920689
9680 0.920939
9685 0.921158
9690 0.921349
9695 0.921508
9700 0.921634
9705 0.92172
9710 0.921786
9715 0.921834
9720 0.921844
9725 0.921822
9730 0.921773
9735 0.9217
9740 0.921597
9745 0.921459
9750 0.921298
9755 0.92112
9760 0.920908
9765 0.920663
9770 0.920396
9775 0.920117
9780 0.919809
9785 0.919473
9790 0.919123
9795 0.918762
9800 0.918374
9805 0.917965
9810 0.917542
9815 0.917118
9820 0.916676
9825 0.916217
9830 0.915742
9835 0.915252
9840 0.914752
9845 0.914243
9850 0.91373
9855 0.913202
9860 0.912679
9865 0.912155
9870 0.911615
9875 0.91107
9880 0.910525
9885 0.909985
9890 0.90944
9895 0.908894
9900 0.908359
9905 0.907832
9910 0.907305
9915 0.906784
9920 0.906276
9925 0.905777
9930 0.905279
9935 0.904787
9940 0.904303
9945 0.903829
9950 0.903362
9955 0.902901
9960 0.902448
9965 0.902018
9970 0.901596
9975 0.901185
9980 0.900797
9985 0.900424
9990 0.900068
9995 0.899725
10000 0.899393
10005 0.89908
10010 0.898787
10015 0.898509
10020 0.898257
10025 0.898018
10030 0.8978
10035 0.897605
10040 0.89743
10045 0.897264
10050 0.897115
10055 0.89699
10060 0.896886
10065 0.896799
10070 0.896726
10075 0.896678
10080 0.896656
10085 0.896651
10090 0.896661
10095 0.896688
10100 0.896737
10105 0.896807
10110 0.896902
10115 0.897014
10120 0.897142
10125 0.897292
10130 0.897458
10135 0.897643
10140 0.897845
10145 0.898078
10150 0.898332
10155 0.898602
10160 0.898882
10165 0.899188
10170 0.899514
10175 0.899855
10180 0.900209
10185 0.90058
10190 0.900977
10195 0.90139
10200 0.901813
10205 0.902245
10210 0.902694
10215 0.903156
10220 0.90363
10225 0.904119
10230 0.904632
10235 0.905172
10240 0.905726
10245 0.90629
10250 0.906869
10255 0.907461
10260 0.908054
10265 0.90865
10270 0.909248
10275 0.909853
10280 0.910464
10285 0.911081
10290 0.911701
10295 0.912321
10300 0.912944
10305 0.913569
10310 0.914202
10315 0.91484
10320 0.915488
10325 0.916142
10330 0.916798
10335 0.917463
10340 0.918132
10345 0.918799
10350 0.919456
10355 0.920108
10360 0.920757
10365 0.921414
10370 0.922058
10375 0.922694
10380 0.92334
10385 0.923989
10390 0.924633
10395 0.925264
10400 0.925882
10405 0.926504
10410 0.92711
10415 0.927707
10420 0.928302
10425 0.928892
10430 0.929464
10435 0.93002
10440 0.930565
10445 0.931114
10450 0.931657
10455 0.932176
10460 0.932685
10465 0.933202
10470 0.933712
10475 0.934208
10480 0.934681
10485 0.935147
10490 0.935605
10495 0.936043
10500 0.936464
10505 0.936881
10510 0.937281
10515 0.937671
10520 0.938055
10525 0.938422
10530 0.938773
10535 0.939109
10540 0.939437
10545 0.939749
10550 0.940038
10555 0.940313
10560 0.940574
10565 0.940828
10570 0.941073
10575 0.941297
10580 0.941509
10585 0.941711
10590 0.941894
10595 0.942055
10600 0.942206
10605 0.942353
10610 0.942482
10615 0.942593
10620 0.942691
10625 0.942778
10630 0.942851
10635 0.942899
10640 0.942939
10645 0.942977
10650 0.943001
10655 0.943009
10660 0.943011
10665 0.943011
10670 0.942989
10675 0.942948
10680 0.942895
10685 0.942828
10690 0.942746
10695 0.94265
10700 0.94254
10705 0.942424
10710 0.942302
10715 0.942173
10720 0.942032
10725 0.941885
10730 0.941735
10735 0.941584
10740 0.94142
10745 0.941243
10750 0.941056
10755 0.940869
10760 0.94067
10765 0.94046
10770 0.940244
10775 0.940018
10780 0.939793
10785 0.939563
10790 0.939334
10795 0.939108
10800 0.938871
10805 0.938625
10810 0.938379
10815 0.938128
10820 0.937873
10825 0.937614
10830 0.937353
10835 0.937089
10840 0.936826
10845 0.936571
10850 0.936319
10855 0.936073
10860 0.935822
10865 0.935566
10870 0.935309
10875 0.935054
10880 0.934787
10885 0.934523
10890 0.934256
10895 0.93399
10900 0.933749
10905 0.933503
10910 0.933258
10915 0.93301
10920 0.932765
10925 0.93252
10930 0.932278
10935 0.932041
10940 0.931813
10945 0.931601
10950 0.931393
10955 0.921338
10960 0.855773
10965 0.725372
10970 0.58844
10975 0.451283
10980 0.312897
10985 0.176306
10990 0.0426515
10995 0
