@MEASUREMENT_RADIUS 18.6 cm
# lambda : Angstroms 
# tr : transmission ([0,1]) 
# end
7860 3.51294e-05
7865 0.000282077
7870 0.000725386
7875 0.00140655
7880 0.00213875
7885 0.00291532
7890 0.00355393
7895 0.00383506
7900 0.0040893
7905 0.00436475
7910 0.00466312
7915 0.00498772
7920 0.00534034
7925 0.00572213
7930 0.00613632
7935 0.00658514
7940 0.00707018
7945 0.00759745
7950 0.00816854
7955 0.00879566
7960 0.00959453
7965 0.0106097
7970 0.0118834
7975 0.0133241
7980 0.0148736
7985 0.0164845
7990 0.0179527
7995 0.0193796
8000 0.0209487
8005 0.0226838
8010 0.024593
8015 0.0266757
8020 0.028946
8025 0.0314319
8030 0.0341866
8035 0.037251
8040 0.0406486
8045 0.044396
8050 0.0484986
8055 0.0530095
8060 0.0580184
8065 0.0636461
8070 0.0699458
8075 0.0769073
8080 0.0845451
8085 0.0929201
8090 0.10214
8095 0.11232
8100 0.123584
8105 0.136016
8110 0.149619
8115 0.164375
8120 0.180376
8125 0.197867
8130 0.217027
8135 0.237769
8140 0.260011
8145 0.283718
8150 0.308773
8155 0.335145
8160 0.363014
8165 0.39238
8170 0.422921
8175 0.454145
8180 0.485787
8185 0.517706
8190 0.54976
8195 0.581903
8200 0.61383
8205 0.645105
8210 0.675194
8215 0.703751
8220 0.730846
8225 0.756501
8230 0.780435
8235 0.802365
8240 0.822156
8245 0.839642
8250 0.854808
8255 0.867905
8260 0.879073
8265 0.888339
8270 0.895717
8275 0.90125
8280 0.905149
8285 0.907693
8290 0.909096
8295 0.909543
8300 0.909187
8305 0.908182
8310 0.906689
8315 0.904855
8320 0.90281
8325 0.900655
8330 0.898493
8335 0.896425
8340 0.894536
8345 0.892863
8350 0.891416
8355 0.890223
8360 0.889293
8365 0.888651
8370 0.888312
8375 0.888291
8380 0.888579
8385 0.889145
8390 0.889977
8395 0.891062
8400 0.89237
8405 0.893889
8410 0.895599
8415 0.897503
8420 0.899571
8425 0.901742
8430 0.903995
8435 0.906315
8440 0.908711
8445 0.911159
8450 0.913628
8455 0.916099
8460 0.918521
8465 0.92086
8470 0.923114
8475 0.925295
8480 0.927403
8485 0.929424
8490 0.931317
8495 0.93304
8500 0.934594
8505 0.935977
8510 0.937196
8515 0.938237
8520 0.939092
8525 0.939761
8530 0.940235
8535 0.940513
8540 0.940609
8545 0.940536
8550 0.940298
8555 0.939908
8560 0.939363
8565 0.938671
8570 0.937839
8575 0.936876
8580 0.935788
8585 0.934592
8590 0.933312
8595 0.931943
8600 0.930492
8605 0.928967
8610 0.927384
8615 0.925764
8620 0.924124
8625 0.922468
8630 0.920786
8635 0.919095
8640 0.917402
8645 0.915698
8650 0.914021
8655 0.912396
8660 0.910817
8665 0.909274
8670 0.90777
8675 0.906317
8680 0.904927
8685 0.903611
8690 0.902366
8695 0.901196
8700 0.900099
8705 0.899064
8710 0.898109
8715 0.89724
8720 0.89646
8725 0.895777
8730 0.895166
8735 0.894635
8740 0.89418
8745 0.893798
8750 0.893509
8755 0.89329
8760 0.893141
8765 0.893074
8770 0.893079
8775 0.893155
8780 0.893298
8785 0.893499
8790 0.893761
8795 0.894073
8800 0.894436
8805 0.894851
8810 0.89532
8815 0.895832
8820 0.896381
8825 0.896967
8830 0.897581
8835 0.898221
8840 0.898879
8845 0.899538
8850 0.900213
8855 0.900897
8860 0.901586
8865 0.902278
8870 0.902957
8875 0.90363
8880 0.904291
8885 0.904934
8890 0.905565
8895 0.906166
8900 0.906727
8905 0.907253
8910 0.907736
8915 0.908178
8920 0.908575
8925 0.908932
8930 0.909243
8935 0.909491
8940 0.909677
8945 0.909802
8950 0.909864
8955 0.909871
8960 0.909805
8965 0.909676
8970 0.909494
8975 0.909239
8980 0.908914
8985 0.908526
8990 0.90807
8995 0.907553
9000 0.906981
9005 0.906347
9010 0.905645
9015 0.904881
9020 0.904051
9025 0.903162
9030 0.902223
9035 0.901231
9040 0.900197
9045 0.899123
9050 0.898001
9055 0.896837
9060 0.895634
9065 0.894398
9070 0.893131
9075 0.891831
9080 0.8905
9085 0.889143
9090 0.887768
9095 0.886379
9100 0.884982
9105 0.883576
9110 0.882152
9115 0.880714
9120 0.87927
9125 0.877832
9130 0.876405
9135 0.874983
9140 0.873567
9145 0.872165
9150 0.870771
9155 0.869399
9160 0.868052
9165 0.866733
9170 0.865438
9175 0.864163
9180 0.862923
9185 0.861729
9190 0.860573
9195 0.859459
9200 0.858391
9205 0.857358
9210 0.856358
9215 0.855399
9220 0.854487
9225 0.853623
9230 0.852808
9235 0.852026
9240 0.851286
9245 0.850595
9250 0.849957
9255 0.849381
9260 0.848866
9265 0.848402
9270 0.84799
9275 0.847628
9280 0.847313
9285 0.847054
9290 0.846854
9295 0.846714
9300 0.846632
9305 0.846608
9310 0.846637
9315 0.846718
9320 0.846848
9325 0.847033
9330 0.84728
9335 0.847577
9340 0.847925
9345 0.848331
9350 0.848793
9355 0.849304
9360 0.84987
9365 0.850488
9370 0.851152
9375 0.851856
9380 0.852606
9385 0.853399
9390 0.854234
9395 0.855112
9400 0.856034
9405 0.856994
9410 0.857987
9415 0.859004
9420 0.860053
9425 0.861136
9430 0.862248
9435 0.863389
9440 0.864551
9445 0.86573
9450 0.866927
9455 0.868147
9460 0.86939
9465 0.870651
9470 0.871927
9475 0.87322
9480 0.874526
9485 0.875835
9490 0.877149
9495 0.878468
9500 0.879786
9505 0.881101
9510 0.882408
9515 0.883711
9520 0.885012
9525 0.886304
9530 0.88759
9535 0.888865
9540 0.890119
9545 0.891355
9550 0.892576
9555 0.893782
9560 0.894969
9565 0.896135
9570 0.897273
9575 0.898384
9580 0.899469
9585 0.900532
9590 0.901571
9595 0.902583
9600 0.903558
9605 0.904497
9610 0.905405
9615 0.906284
9620 0.907133
9625 0.90795
9630 0.908725
9635 0.909459
9640 0.91015
9645 0.910801
9650 0.91141
9655 0.911977
9660 0.912499
9665 0.912978
9670 0.913406
9675 0.913794
9680 0.914145
9685 0.914458
9690 0.914729
9695 0.914965
9700 0.915158
9705 0.915311
9710 0.915425
9715 0.915502
9720 0.91554
9725 0.915532
9730 0.915482
9735 0.915392
9740 0.91526
9745 0.91509
9750 0.914881
9755 0.914636
9760 0.914358
9765 0.914044
9770 0.913698
9775 0.913326
9780 0.912918
9785 0.912483
9790 0.912018
9795 0.911523
9800 0.910997
9805 0.910451
9810 0.909882
9815 0.909291
9820 0.908684
9825 0.90806
9830 0.907416
9835 0.906752
9840 0.906071
9845 0.905372
9850 0.904665
9855 0.903953
9860 0.903237
9865 0.902512
9870 0.901779
9875 0.901039
9880 0.900295
9885 0.89955
9890 0.898806
9895 0.898063
9900 0.897325
9905 0.896591
9910 0.895858
9915 0.895131
9920 0.894415
9925 0.893708
9930 0.893006
9935 0.892315
9940 0.891633
9945 0.890969
9950 0.890321
9955 0.889682
9960 0.889056
9965 0.888442
9970 0.887838
9975 0.887246
9980 0.886674
9985 0.886123
9990 0.885596
9995 0.885093
10000 0.884608
10005 0.884151
10010 0.88372
10015 0.883311
10020 0.882921
10025 0.882552
10030 0.882201
10035 0.881872
10040 0.881568
10045 0.881293
10050 0.881046
10055 0.880824
10060 0.880628
10065 0.880456
10070 0.880309
10075 0.880189
10080 0.880097
10085 0.880028
10090 0.879986
10095 0.879967
10100 0.879972
10105 0.880006
10110 0.880065
10115 0.880146
10120 0.880251
10125 0.88038
10130 0.880532
10135 0.880713
10140 0.880918
10145 0.881155
10150 0.881425
10155 0.881721
10160 0.882043
10165 0.882392
10170 0.882766
10175 0.883158
10180 0.88357
10185 0.884005
10190 0.884471
10195 0.884961
10200 0.885467
10205 0.885994
10210 0.886538
10215 0.887096
10220 0.887673
10225 0.888272
10230 0.888894
10235 0.889547
10240 0.890225
10245 0.890923
10250 0.891642
10255 0.892379
10260 0.893121
10265 0.893869
10270 0.894621
10275 0.895375
10280 0.896137
10285 0.896919
10290 0.897715
10295 0.898517
10300 0.899324
10305 0.90014
10310 0.900968
10315 0.901807
10320 0.90265
10325 0.903495
10330 0.904344
10335 0.905199
10340 0.906055
10345 0.90692
10350 0.907786
10355 0.908646
10360 0.909504
10365 0.910361
10370 0.911214
10375 0.91207
10380 0.912935
10385 0.913796
10390 0.914652
10395 0.915499
10400 0.916333
10405 0.917165
10410 0.917992
10415 0.91881
10420 0.919613
10425 0.920405
10430 0.921184
10435 0.921952
10440 0.922714
10445 0.923473
10450 0.924222
10455 0.924954
10460 0.925675
10465 0.926385
10470 0.927083
10475 0.927767
10480 0.928429
10485 0.929078
10490 0.929712
10495 0.930329
10500 0.930927
10505 0.931514
10510 0.932089
10515 0.932643
10520 0.933182
10525 0.933705
10530 0.934213
10535 0.934706
10540 0.93518
10545 0.935635
10550 0.936068
10555 0.936477
10560 0.936866
10565 0.93724
10570 0.937601
10575 0.937945
10580 0.938265
10585 0.938561
10590 0.938835
10595 0.939092
10600 0.93933
10605 0.939546
10610 0.939745
10615 0.939927
10620 0.940089
10625 0.940236
10630 0.940368
10635 0.940481
10640 0.940579
10645 0.940667
10650 0.940733
10655 0.94077
10660 0.940795
10665 0.940807
10670 0.940794
10675 0.940759
10680 0.940705
10685 0.940629
10690 0.940537
10695 0.940431
10700 0.940312
10705 0.940176
10710 0.940031
10715 0.939878
10720 0.939715
10725 0.939534
10730 0.939335
10735 0.939122
10740 0.938893
10745 0.938654
10750 0.938405
10755 0.938147
10760 0.937878
10765 0.937599
10770 0.93731
10775 0.937012
10780 0.936711
10785 0.9364
10790 0.936084
10795 0.935764
10800 0.935435
10805 0.935097
10810 0.934753
10815 0.934407
10820 0.934054
10825 0.933693
10830 0.933332
10835 0.932973
10840 0.932614
10845 0.932256
10850 0.931899
10855 0.931531
10860 0.931153
10865 0.930774
10870 0.930396
10875 0.930016
10880 0.929633
10885 0.929252
10890 0.928879
10895 0.928518
10900 0.92816
10905 0.927797
10910 0.927435
10915 0.927077
10920 0.926718
10925 0.926364
10930 0.926018
10935 0.925677
10940 0.925339
10945 0.925009
10950 0.920931
10955 0.8803
10960 0.814025
10965 0.71886
10970 0.583795
10975 0.447021
10980 0.310915
10985 0.175849
10990 0.0571056
10995 0
