# JWST NIRCAM preliminary Filter transmission curve
# http://www.stsci.edu/jwst/instruments/nircam/instrumentdesign/filters
# retrieved 2014.09.09 by S.Rodney
# Microns	Transmission
    2.8862	1.033E-05
    2.8876	1.112E-05
    2.8889	1.109E-05
    2.8903	1.171E-05
    2.8916	1.165E-05
    2.8930	1.137E-05
    2.8943	1.066E-05
    2.8957	1.023E-05
    2.8970	1.036E-05
    2.8984	1.055E-05
    2.8997	1.356E-05
    2.9011	1.532E-05
    2.9024	1.576E-05
    2.9038	1.687E-05
    2.9051	1.876E-05
    2.9065	2.023E-05
    2.9079	2.076E-05
    2.9092	2.105E-05
    2.9106	1.947E-05
    2.9119	1.852E-05
    2.9133	2.020E-05
    2.9146	2.218E-05
    2.9160	2.353E-05
    2.9173	2.428E-05
    2.9187	2.547E-05
    2.9200	2.606E-05
    2.9214	2.681E-05
    2.9227	2.732E-05
    2.9241	2.717E-05
    2.9254	2.735E-05
    2.9268	2.807E-05
    2.9281	2.905E-05
    2.9295	2.911E-05
    2.9308	3.024E-05
    2.9322	3.124E-05
    2.9335	3.164E-05
    2.9349	3.079E-05
    2.9362	2.990E-05
    2.9376	2.900E-05
    2.9389	2.793E-05
    2.9403	2.861E-05
    2.9416	2.951E-05
    2.9430	2.967E-05
    2.9443	2.971E-05
    2.9457	3.024E-05
    2.9470	3.000E-05
    2.9484	2.979E-05
    2.9497	3.098E-05
    2.9511	3.106E-05
    2.9524	3.103E-05
    2.9538	3.083E-05
    2.9551	3.085E-05
    2.9565	3.072E-05
    2.9578	3.068E-05
    2.9592	3.190E-05
    2.9605	3.207E-05
    2.9619	3.239E-05
    2.9633	3.286E-05
    2.9646	3.415E-05
    2.9660	3.533E-05
    2.9673	3.864E-05
    2.9687	4.141E-05
    2.9700	4.230E-05
    2.9714	4.375E-05
    2.9727	4.595E-05
    2.9741	4.756E-05
    2.9754	4.976E-05
    2.9768	5.209E-05
    2.9781	5.376E-05
    2.9795	5.744E-05
    2.9808	6.189E-05
    2.9822	6.564E-05
    2.9835	7.002E-05
    2.9849	7.753E-05
    2.9862	8.454E-05
    2.9876	9.243E-05
    2.9889	1.013E-04
    2.9903	1.087E-04
    2.9916	1.174E-04
    2.9930	1.275E-04
    2.9943	1.378E-04
    2.9957	1.462E-04
    2.9970	1.553E-04
    2.9984	1.667E-04
    2.9997	1.787E-04
    3.0011	1.937E-04
    3.0024	2.094E-04
    3.0038	2.252E-04
    3.0051	2.430E-04
    3.0065	2.633E-04
    3.0078	2.849E-04
    3.0092	3.078E-04
    3.0105	3.319E-04
    3.0119	3.572E-04
    3.0132	3.838E-04
    3.0146	4.125E-04
    3.0159	4.429E-04
    3.0173	4.745E-04
    3.0187	5.083E-04
    3.0200	5.432E-04
    3.0214	5.804E-04
    3.0227	6.192E-04
    3.0241	6.616E-04
    3.0254	7.081E-04
    3.0268	7.560E-04
    3.0281	8.061E-04
    3.0295	8.618E-04
    3.0308	9.206E-04
    3.0322	9.832E-04
    3.0335	1.051E-03
    3.0349	1.123E-03
    3.0362	1.198E-03
    3.0376	1.279E-03
    3.0389	1.367E-03
    3.0403	1.462E-03
    3.0416	1.563E-03
    3.0430	1.671E-03
    3.0443	1.788E-03
    3.0457	1.915E-03
    3.0470	2.050E-03
    3.0484	2.197E-03
    3.0497	2.357E-03
    3.0511	2.526E-03
    3.0524	2.711E-03
    3.0538	2.912E-03
    3.0551	3.127E-03
    3.0565	3.363E-03
    3.0578	3.617E-03
    3.0592	3.892E-03
    3.0605	4.191E-03
    3.0619	4.515E-03
    3.0632	4.867E-03
    3.0646	5.250E-03
    3.0659	5.663E-03
    3.0673	6.109E-03
    3.0686	6.597E-03
    3.0700	7.126E-03
    3.0713	7.700E-03
    3.0727	8.325E-03
    3.0741	9.005E-03
    3.0754	9.745E-03
    3.0768	1.055E-02
    3.0781	1.143E-02
    3.0795	1.239E-02
    3.0808	1.344E-02
    3.0822	1.458E-02
    3.0835	1.582E-02
    3.0849	1.717E-02
    3.0862	1.866E-02
    3.0876	2.028E-02
    3.0889	2.204E-02
    3.0903	2.397E-02
    3.0916	2.607E-02
    3.0930	2.837E-02
    3.0943	3.088E-02
    3.0957	3.363E-02
    3.0970	3.663E-02
    3.0984	3.991E-02
    3.0997	4.349E-02
    3.1011	4.743E-02
    3.1024	5.172E-02
    3.1038	5.641E-02
    3.1051	6.156E-02
    3.1065	6.718E-02
    3.1078	7.332E-02
    3.1092	8.006E-02
    3.1105	8.739E-02
    3.1119	9.540E-02
    3.1132	1.042E-01
    3.1146	1.137E-01
    3.1159	1.241E-01
    3.1173	1.354E-01
    3.1186	1.477E-01
    3.1200	1.610E-01
    3.1213	1.754E-01
    3.1227	1.909E-01
    3.1240	2.076E-01
    3.1254	2.255E-01
    3.1267	2.447E-01
    3.1281	2.651E-01
    3.1295	2.866E-01
    3.1308	3.094E-01
    3.1322	3.333E-01
    3.1335	3.582E-01
    3.1349	3.839E-01
    3.1362	4.106E-01
    3.1376	4.377E-01
    3.1389	4.653E-01
    3.1403	4.931E-01
    3.1416	5.208E-01
    3.1430	5.482E-01
    3.1443	5.752E-01
    3.1457	6.014E-01
    3.1470	6.267E-01
    3.1484	6.508E-01
    3.1497	6.737E-01
    3.1511	6.952E-01
    3.1524	7.151E-01
    3.1538	7.335E-01
    3.1551	7.503E-01
    3.1565	7.655E-01
    3.1578	7.792E-01
    3.1592	7.914E-01
    3.1605	8.021E-01
    3.1619	8.115E-01
    3.1632	8.197E-01
    3.1646	8.267E-01
    3.1659	8.328E-01
    3.1673	8.379E-01
    3.1686	8.423E-01
    3.1700	8.460E-01
    3.1713	8.490E-01
    3.1727	8.515E-01
    3.1740	8.536E-01
    3.1754	8.553E-01
    3.1767	8.567E-01
    3.1781	8.578E-01
    3.1794	8.588E-01
    3.1808	8.595E-01
    3.1822	8.601E-01
    3.1835	8.607E-01
    3.1849	8.611E-01
    3.1862	8.614E-01
    3.1876	8.617E-01
    3.1889	8.620E-01
    3.1903	8.621E-01
    3.1916	8.623E-01
    3.1930	8.625E-01
    3.1943	8.626E-01
    3.1957	8.627E-01
    3.1970	8.628E-01
    3.1984	8.630E-01
    3.1997	8.631E-01
    3.2011	8.631E-01
    3.2024	8.632E-01
    3.2038	8.633E-01
    3.2051	8.634E-01
    3.2065	8.635E-01
    3.2078	8.635E-01
    3.2092	8.635E-01
    3.2105	8.635E-01
    3.2119	8.636E-01
    3.2132	8.636E-01
    3.2146	8.636E-01
    3.2159	8.637E-01
    3.2173	8.637E-01
    3.2186	8.638E-01
    3.2200	8.639E-01
    3.2213	8.640E-01
    3.2227	8.641E-01
    3.2240	8.642E-01
    3.2254	8.644E-01
    3.2267	8.646E-01
    3.2281	8.648E-01
    3.2294	8.650E-01
    3.2308	8.652E-01
    3.2321	8.654E-01
    3.2335	8.657E-01
    3.2348	8.660E-01
    3.2362	8.663E-01
    3.2376	8.666E-01
    3.2389	8.670E-01
    3.2403	8.673E-01
    3.2416	8.678E-01
    3.2430	8.682E-01
    3.2443	8.686E-01
    3.2457	8.690E-01
    3.2470	8.694E-01
    3.2484	8.698E-01
    3.2497	8.703E-01
    3.2511	8.706E-01
    3.2524	8.710E-01
    3.2538	8.715E-01
    3.2551	8.718E-01
    3.2565	8.722E-01
    3.2578	8.727E-01
    3.2592	8.730E-01
    3.2605	8.735E-01
    3.2619	8.739E-01
    3.2632	8.742E-01
    3.2646	8.746E-01
    3.2659	8.750E-01
    3.2673	8.752E-01
    3.2686	8.756E-01
    3.2700	8.759E-01
    3.2713	8.761E-01
    3.2727	8.765E-01
    3.2740	8.767E-01
    3.2754	8.771E-01
    3.2767	8.774E-01
    3.2781	8.776E-01
    3.2794	8.780E-01
    3.2808	8.783E-01
    3.2821	8.786E-01
    3.2835	8.789E-01
    3.2848	8.792E-01
    3.2862	8.795E-01
    3.2875	8.799E-01
    3.2889	8.802E-01
    3.2902	8.806E-01
    3.2916	8.810E-01
    3.2930	8.814E-01
    3.2943	8.818E-01
    3.2957	8.822E-01
    3.2970	8.827E-01
    3.2984	8.831E-01
    3.2997	8.836E-01
    3.3011	8.841E-01
    3.3024	8.845E-01
    3.3038	8.850E-01
    3.3051	8.855E-01
    3.3065	8.860E-01
    3.3078	8.865E-01
    3.3092	8.871E-01
    3.3105	8.877E-01
    3.3119	8.882E-01
    3.3132	8.889E-01
    3.3146	8.895E-01
    3.3159	8.901E-01
    3.3173	8.908E-01
    3.3186	8.914E-01
    3.3200	8.919E-01
    3.3213	8.927E-01
    3.3227	8.932E-01
    3.3240	8.939E-01
    3.3254	8.944E-01
    3.3267	8.949E-01
    3.3281	8.957E-01
    3.3294	8.961E-01
    3.3308	8.966E-01
    3.3321	8.974E-01
    3.3335	8.978E-01
    3.3348	8.983E-01
    3.3362	8.990E-01
    3.3375	8.995E-01
    3.3389	8.999E-01
    3.3402	9.006E-01
    3.3416	9.010E-01
    3.3429	9.014E-01
    3.3443	9.021E-01
    3.3456	9.024E-01
    3.3470	9.031E-01
    3.3484	9.034E-01
    3.3497	9.037E-01
    3.3511	9.044E-01
    3.3524	9.047E-01
    3.3538	9.050E-01
    3.3551	9.056E-01
    3.3565	9.059E-01
    3.3578	9.062E-01
    3.3592	9.068E-01
    3.3605	9.071E-01
    3.3619	9.074E-01
    3.3632	9.080E-01
    3.3646	9.083E-01
    3.3659	9.086E-01
    3.3673	9.091E-01
    3.3686	9.094E-01
    3.3700	9.097E-01
    3.3713	9.103E-01
    3.3727	9.106E-01
    3.3740	9.111E-01
    3.3754	9.115E-01
    3.3767	9.118E-01
    3.3781	9.124E-01
    3.3794	9.127E-01
    3.3808	9.131E-01
    3.3821	9.136E-01
    3.3835	9.140E-01
    3.3848	9.144E-01
    3.3862	9.149E-01
    3.3875	9.153E-01
    3.3889	9.157E-01
    3.3902	9.162E-01
    3.3916	9.166E-01
    3.3929	9.170E-01
    3.3943	9.174E-01
    3.3956	9.178E-01
    3.3970	9.181E-01
    3.3983	9.185E-01
    3.3997	9.188E-01
    3.4010	9.191E-01
    3.4024	9.194E-01
    3.4038	9.196E-01
    3.4051	9.199E-01
    3.4065	9.202E-01
    3.4078	9.204E-01
    3.4092	9.207E-01
    3.4105	9.209E-01
    3.4119	9.211E-01
    3.4132	9.213E-01
    3.4146	9.215E-01
    3.4159	9.217E-01
    3.4173	9.219E-01
    3.4186	9.220E-01
    3.4200	9.221E-01
    3.4213	9.223E-01
    3.4227	9.224E-01
    3.4240	9.225E-01
    3.4254	9.226E-01
    3.4267	9.227E-01
    3.4281	9.228E-01
    3.4294	9.229E-01
    3.4308	9.230E-01
    3.4321	9.232E-01
    3.4335	9.232E-01
    3.4348	9.233E-01
    3.4362	9.233E-01
    3.4375	9.233E-01
    3.4389	9.233E-01
    3.4402	9.234E-01
    3.4416	9.234E-01
    3.4429	9.233E-01
    3.4443	9.234E-01
    3.4456	9.234E-01
    3.4470	9.234E-01
    3.4483	9.235E-01
    3.4497	9.235E-01
    3.4510	9.236E-01
    3.4524	9.237E-01
    3.4537	9.237E-01
    3.4551	9.238E-01
    3.4565	9.239E-01
    3.4578	9.240E-01
    3.4592	9.241E-01
    3.4605	9.242E-01
    3.4619	9.243E-01
    3.4632	9.245E-01
    3.4646	9.245E-01
    3.4659	9.246E-01
    3.4673	9.248E-01
    3.4686	9.249E-01
    3.4700	9.250E-01
    3.4713	9.252E-01
    3.4727	9.254E-01
    3.4740	9.256E-01
    3.4754	9.257E-01
    3.4767	9.258E-01
    3.4781	9.261E-01
    3.4794	9.262E-01
    3.4808	9.263E-01
    3.4821	9.266E-01
    3.4835	9.267E-01
    3.4848	9.268E-01
    3.4862	9.270E-01
    3.4875	9.271E-01
    3.4889	9.272E-01
    3.4902	9.274E-01
    3.4916	9.275E-01
    3.4929	9.275E-01
    3.4943	9.277E-01
    3.4956	9.277E-01
    3.4970	9.278E-01
    3.4983	9.279E-01
    3.4997	9.279E-01
    3.5010	9.280E-01
    3.5024	9.280E-01
    3.5037	9.280E-01
    3.5051	9.281E-01
    3.5064	9.281E-01
    3.5078	9.281E-01
    3.5091	9.282E-01
    3.5105	9.282E-01
    3.5119	9.282E-01
    3.5132	9.282E-01
    3.5146	9.282E-01
    3.5159	9.281E-01
    3.5173	9.281E-01
    3.5186	9.281E-01
    3.5200	9.280E-01
    3.5213	9.279E-01
    3.5227	9.278E-01
    3.5240	9.276E-01
    3.5254	9.275E-01
    3.5267	9.274E-01
    3.5281	9.273E-01
    3.5294	9.271E-01
    3.5308	9.270E-01
    3.5321	9.269E-01
    3.5335	9.268E-01
    3.5348	9.267E-01
    3.5362	9.266E-01
    3.5375	9.265E-01
    3.5389	9.264E-01
    3.5402	9.263E-01
    3.5416	9.262E-01
    3.5429	9.261E-01
    3.5443	9.260E-01
    3.5456	9.260E-01
    3.5470	9.259E-01
    3.5483	9.259E-01
    3.5497	9.258E-01
    3.5510	9.258E-01
    3.5524	9.258E-01
    3.5537	9.258E-01
    3.5551	9.257E-01
    3.5564	9.257E-01
    3.5578	9.258E-01
    3.5591	9.257E-01
    3.5605	9.258E-01
    3.5618	9.258E-01
    3.5632	9.258E-01
    3.5645	9.259E-01
    3.5659	9.260E-01
    3.5673	9.260E-01
    3.5686	9.261E-01
    3.5700	9.262E-01
    3.5713	9.262E-01
    3.5727	9.263E-01
    3.5740	9.264E-01
    3.5754	9.265E-01
    3.5767	9.266E-01
    3.5781	9.267E-01
    3.5794	9.268E-01
    3.5808	9.270E-01
    3.5821	9.271E-01
    3.5835	9.272E-01
    3.5848	9.273E-01
    3.5862	9.274E-01
    3.5875	9.275E-01
    3.5889	9.276E-01
    3.5902	9.277E-01
    3.5916	9.278E-01
    3.5929	9.279E-01
    3.5943	9.281E-01
    3.5956	9.282E-01
    3.5970	9.283E-01
    3.5983	9.284E-01
    3.5997	9.285E-01
    3.6010	9.286E-01
    3.6024	9.287E-01
    3.6037	9.288E-01
    3.6051	9.290E-01
    3.6064	9.290E-01
    3.6078	9.291E-01
    3.6091	9.293E-01
    3.6105	9.294E-01
    3.6118	9.294E-01
    3.6132	9.296E-01
    3.6145	9.297E-01
    3.6159	9.297E-01
    3.6172	9.299E-01
    3.6186	9.300E-01
    3.6199	9.300E-01
    3.6213	9.302E-01
    3.6227	9.302E-01
    3.6240	9.304E-01
    3.6254	9.305E-01
    3.6267	9.306E-01
    3.6281	9.307E-01
    3.6294	9.308E-01
    3.6308	9.309E-01
    3.6321	9.310E-01
    3.6335	9.311E-01
    3.6348	9.312E-01
    3.6362	9.314E-01
    3.6375	9.314E-01
    3.6389	9.316E-01
    3.6402	9.317E-01
    3.6416	9.318E-01
    3.6429	9.319E-01
    3.6443	9.321E-01
    3.6456	9.322E-01
    3.6470	9.323E-01
    3.6483	9.324E-01
    3.6497	9.325E-01
    3.6510	9.326E-01
    3.6524	9.328E-01
    3.6537	9.329E-01
    3.6551	9.330E-01
    3.6564	9.331E-01
    3.6578	9.332E-01
    3.6591	9.333E-01
    3.6605	9.334E-01
    3.6618	9.335E-01
    3.6632	9.336E-01
    3.6645	9.337E-01
    3.6659	9.338E-01
    3.6672	9.339E-01
    3.6686	9.340E-01
    3.6699	9.341E-01
    3.6713	9.342E-01
    3.6726	9.342E-01
    3.6740	9.343E-01
    3.6753	9.344E-01
    3.6767	9.344E-01
    3.6781	9.345E-01
    3.6794	9.345E-01
    3.6808	9.346E-01
    3.6821	9.346E-01
    3.6835	9.347E-01
    3.6848	9.347E-01
    3.6862	9.347E-01
    3.6875	9.348E-01
    3.6889	9.348E-01
    3.6902	9.348E-01
    3.6916	9.349E-01
    3.6929	9.349E-01
    3.6943	9.349E-01
    3.6956	9.350E-01
    3.6970	9.350E-01
    3.6983	9.350E-01
    3.6997	9.351E-01
    3.7010	9.351E-01
    3.7024	9.351E-01
    3.7037	9.351E-01
    3.7051	9.351E-01
    3.7064	9.352E-01
    3.7078	9.352E-01
    3.7091	9.352E-01
    3.7105	9.353E-01
    3.7118	9.353E-01
    3.7132	9.354E-01
    3.7145	9.354E-01
    3.7159	9.355E-01
    3.7172	9.355E-01
    3.7186	9.356E-01
    3.7199	9.356E-01
    3.7213	9.357E-01
    3.7226	9.357E-01
    3.7240	9.358E-01
    3.7253	9.358E-01
    3.7267	9.359E-01
    3.7280	9.360E-01
    3.7294	9.360E-01
    3.7308	9.361E-01
    3.7321	9.361E-01
    3.7335	9.362E-01
    3.7348	9.362E-01
    3.7362	9.363E-01
    3.7375	9.363E-01
    3.7389	9.363E-01
    3.7402	9.364E-01
    3.7416	9.364E-01
    3.7429	9.364E-01
    3.7443	9.364E-01
    3.7456	9.364E-01
    3.7470	9.363E-01
    3.7483	9.363E-01
    3.7497	9.362E-01
    3.7510	9.362E-01
    3.7524	9.361E-01
    3.7537	9.360E-01
    3.7551	9.359E-01
    3.7564	9.358E-01
    3.7578	9.356E-01
    3.7591	9.355E-01
    3.7605	9.353E-01
    3.7618	9.351E-01
    3.7632	9.349E-01
    3.7645	9.347E-01
    3.7659	9.344E-01
    3.7672	9.342E-01
    3.7686	9.339E-01
    3.7699	9.337E-01
    3.7713	9.334E-01
    3.7726	9.331E-01
    3.7740	9.328E-01
    3.7753	9.325E-01
    3.7767	9.321E-01
    3.7780	9.318E-01
    3.7794	9.314E-01
    3.7807	9.311E-01
    3.7821	9.307E-01
    3.7834	9.303E-01
    3.7848	9.300E-01
    3.7862	9.296E-01
    3.7875	9.293E-01
    3.7889	9.289E-01
    3.7902	9.286E-01
    3.7916	9.282E-01
    3.7929	9.279E-01
    3.7943	9.276E-01
    3.7956	9.273E-01
    3.7970	9.270E-01
    3.7983	9.267E-01
    3.7997	9.264E-01
    3.8010	9.262E-01
    3.8024	9.260E-01
    3.8037	9.258E-01
    3.8051	9.256E-01
    3.8064	9.254E-01
    3.8078	9.253E-01
    3.8091	9.251E-01
    3.8105	9.251E-01
    3.8118	9.251E-01
    3.8132	9.250E-01
    3.8145	9.250E-01
    3.8159	9.251E-01
    3.8172	9.251E-01
    3.8186	9.252E-01
    3.8199	9.253E-01
    3.8213	9.253E-01
    3.8226	9.255E-01
    3.8240	9.256E-01
    3.8253	9.257E-01
    3.8267	9.260E-01
    3.8280	9.261E-01
    3.8294	9.264E-01
    3.8307	9.266E-01
    3.8321	9.268E-01
    3.8334	9.270E-01
    3.8348	9.273E-01
    3.8361	9.274E-01
    3.8375	9.276E-01
    3.8388	9.279E-01
    3.8402	9.280E-01
    3.8416	9.282E-01
    3.8429	9.284E-01
    3.8443	9.284E-01
    3.8456	9.286E-01
    3.8470	9.287E-01
    3.8483	9.286E-01
    3.8497	9.287E-01
    3.8510	9.285E-01
    3.8524	9.284E-01
    3.8537	9.283E-01
    3.8551	9.280E-01
    3.8564	9.278E-01
    3.8578	9.275E-01
    3.8591	9.271E-01
    3.8605	9.267E-01
    3.8618	9.262E-01
    3.8632	9.256E-01
    3.8645	9.250E-01
    3.8659	9.243E-01
    3.8672	9.234E-01
    3.8686	9.226E-01
    3.8699	9.217E-01
    3.8713	9.206E-01
    3.8726	9.196E-01
    3.8740	9.186E-01
    3.8753	9.173E-01
    3.8767	9.161E-01
    3.8780	9.148E-01
    3.8794	9.134E-01
    3.8807	9.120E-01
    3.8821	9.105E-01
    3.8834	9.090E-01
    3.8848	9.075E-01
    3.8861	9.059E-01
    3.8875	9.043E-01
    3.8888	9.026E-01
    3.8902	9.009E-01
    3.8915	8.992E-01
    3.8929	8.975E-01
    3.8942	8.957E-01
    3.8956	8.940E-01
    3.8970	8.922E-01
    3.8983	8.903E-01
    3.8997	8.885E-01
    3.9010	8.866E-01
    3.9024	8.848E-01
    3.9037	8.830E-01
    3.9051	8.811E-01
    3.9064	8.792E-01
    3.9078	8.773E-01
    3.9091	8.753E-01
    3.9105	8.733E-01
    3.9118	8.712E-01
    3.9132	8.691E-01
    3.9145	8.670E-01
    3.9159	8.647E-01
    3.9172	8.624E-01
    3.9186	8.600E-01
    3.9199	8.574E-01
    3.9213	8.547E-01
    3.9226	8.519E-01
    3.9240	8.489E-01
    3.9253	8.456E-01
    3.9267	8.422E-01
    3.9280	8.385E-01
    3.9294	8.344E-01
    3.9307	8.301E-01
    3.9321	8.254E-01
    3.9334	8.204E-01
    3.9348	8.149E-01
    3.9361	8.091E-01
    3.9375	8.027E-01
    3.9388	7.959E-01
    3.9402	7.885E-01
    3.9415	7.806E-01
    3.9429	7.721E-01
    3.9442	7.631E-01
    3.9456	7.534E-01
    3.9469	7.431E-01
    3.9483	7.322E-01
    3.9496	7.207E-01
    3.9510	7.085E-01
    3.9524	6.957E-01
    3.9537	6.823E-01
    3.9551	6.684E-01
    3.9564	6.538E-01
    3.9578	6.388E-01
    3.9591	6.232E-01
    3.9605	6.072E-01
    3.9618	5.908E-01
    3.9632	5.741E-01
    3.9645	5.570E-01
    3.9659	5.397E-01
    3.9672	5.223E-01
    3.9686	5.047E-01
    3.9699	4.871E-01
    3.9713	4.695E-01
    3.9726	4.519E-01
    3.9740	4.344E-01
    3.9753	4.171E-01
    3.9767	4.000E-01
    3.9780	3.832E-01
    3.9794	3.667E-01
    3.9807	3.505E-01
    3.9821	3.348E-01
    3.9834	3.194E-01
    3.9848	3.044E-01
    3.9861	2.899E-01
    3.9875	2.759E-01
    3.9888	2.624E-01
    3.9902	2.493E-01
    3.9915	2.367E-01
    3.9929	2.247E-01
    3.9942	2.131E-01
    3.9956	2.020E-01
    3.9969	1.914E-01
    3.9983	1.813E-01
    3.9996	1.717E-01
    4.0010	1.625E-01
    4.0023	1.537E-01
    4.0037	1.454E-01
    4.0050	1.374E-01
    4.0064	1.299E-01
    4.0078	1.228E-01
    4.0091	1.160E-01
    4.0105	1.096E-01
    4.0118	1.036E-01
    4.0132	9.781E-02
    4.0145	9.238E-02
    4.0159	8.724E-02
    4.0172	8.238E-02
    4.0186	7.779E-02
    4.0199	7.345E-02
    4.0213	6.935E-02
    4.0226	6.548E-02
    4.0240	6.183E-02
    4.0253	5.838E-02
    4.0267	5.512E-02
    4.0280	5.205E-02
    4.0294	4.915E-02
    4.0307	4.642E-02
    4.0321	4.384E-02
    4.0334	4.141E-02
    4.0348	3.911E-02
    4.0361	3.695E-02
    4.0375	3.490E-02
    4.0388	3.298E-02
    4.0402	3.116E-02
    4.0415	2.945E-02
    4.0429	2.783E-02
    4.0442	2.631E-02
    4.0456	2.487E-02
    4.0469	2.352E-02
    4.0483	2.225E-02
    4.0496	2.104E-02
    4.0510	1.990E-02
    4.0523	1.883E-02
    4.0537	1.782E-02
    4.0550	1.687E-02
    4.0564	1.597E-02
    4.0577	1.513E-02
    4.0591	1.432E-02
    4.0605	1.357E-02
    4.0618	1.286E-02
    4.0632	1.218E-02
    4.0645	1.154E-02
    4.0659	1.094E-02
    4.0672	1.037E-02
    4.0686	9.829E-03
    4.0699	9.322E-03
    4.0713	8.843E-03
    4.0726	8.390E-03
    4.0740	7.963E-03
    4.0753	7.562E-03
    4.0767	7.181E-03
    4.0780	6.823E-03
    4.0794	6.485E-03
    4.0807	6.164E-03
    4.0821	5.861E-03
    4.0834	5.575E-03
    4.0848	5.304E-03
    4.0861	5.044E-03
    4.0875	4.797E-03
    4.0888	4.562E-03
    4.0902	4.338E-03
    4.0915	4.126E-03
    4.0929	3.926E-03
    4.0942	3.738E-03
    4.0956	3.560E-03
    4.0969	3.395E-03
    4.0983	3.238E-03
    4.0996	3.088E-03
    4.1010	2.946E-03
    4.1023	2.813E-03
    4.1037	2.687E-03
    4.1050	2.566E-03
    4.1064	2.451E-03
    4.1077	2.342E-03
    4.1091	2.238E-03
    4.1104	2.141E-03
    4.1118	2.050E-03
    4.1131	1.963E-03
    4.1145	1.881E-03
    4.1159	1.803E-03
    4.1172	1.728E-03
    4.1186	1.656E-03
    4.1199	1.588E-03
    4.1213	1.524E-03
    4.1226	1.461E-03
    4.1240	1.401E-03
    4.1253	1.344E-03
    4.1267	1.288E-03
    4.1280	1.234E-03
    4.1294	1.183E-03
    4.1307	1.135E-03
    4.1321	1.090E-03
    4.1334	1.048E-03
    4.1348	1.009E-03
    4.1361	9.726E-04
    4.1375	9.384E-04
    4.1388	9.070E-04
    4.1402	8.778E-04
    4.1415	8.476E-04
    4.1429	8.171E-04
    4.1442	7.877E-04
    4.1456	7.596E-04
    4.1469	7.325E-04
    4.1483	7.066E-04
    4.1496	6.819E-04
    4.1510	6.578E-04
    4.1523	6.367E-04
    4.1537	6.179E-04
    4.1550	5.992E-04
    4.1564	5.783E-04
    4.1577	5.578E-04
    4.1591	5.390E-04
    4.1604	5.217E-04
    4.1618	5.052E-04
    4.1631	4.904E-04
    4.1645	4.761E-04
    4.1658	4.624E-04
    4.1672	4.506E-04
    4.1685	4.407E-04
    4.1699	4.313E-04
    4.1713	4.214E-04
    4.1726	4.115E-04
    4.1740	4.008E-04
    4.1753	3.889E-04
    4.1767	3.778E-04
    4.1780	3.686E-04
    4.1794	3.592E-04
    4.1807	3.489E-04
    4.1821	3.385E-04
    4.1834	3.292E-04
    4.1848	3.204E-04
    4.1861	3.126E-04
    4.1875	3.054E-04
    4.1888	2.983E-04
    4.1902	2.908E-04
    4.1915	2.840E-04
    4.1929	2.783E-04
    4.1942	2.723E-04
    4.1956	2.665E-04
    4.1969	2.617E-04
    4.1983	2.573E-04
    4.1996	2.520E-04
    4.2010	2.466E-04
    4.2023	2.422E-04
    4.2037	2.384E-04
    4.2050	2.345E-04
    4.2064	2.316E-04
    4.2077	2.295E-04
    4.2091	2.278E-04
    4.2104	2.262E-04
    4.2118	2.258E-04
    4.2131	2.251E-04
    4.2145	2.233E-04
    4.2158	2.204E-04
    4.2172	2.180E-04
    4.2185	2.155E-04
    4.2199	2.130E-04
    4.2212	2.107E-04
    4.2226	2.082E-04
    4.2239	2.049E-04
    4.2253	2.013E-04
    4.2267	1.980E-04
    4.2280	1.945E-04
    4.2294	1.910E-04
    4.2307	1.887E-04
    4.2321	1.884E-04
    4.2334	1.885E-04
    4.2348	1.878E-04
    4.2361	1.875E-04
    4.2375	1.874E-04
    4.2388	1.856E-04
    4.2402	1.807E-04
    4.2415	1.747E-04
    4.2429	1.683E-04
    4.2442	1.628E-04
    4.2456	1.592E-04
    4.2469	1.567E-04
    4.2483	1.546E-04
    4.2496	1.532E-04
    4.2510	1.537E-04
    4.2523	1.543E-04
    4.2537	1.528E-04
    4.2550	1.491E-04
    4.2564	1.444E-04
    4.2577	1.398E-04
    4.2591	1.349E-04
    4.2604	1.306E-04
    4.2618	1.274E-04
    4.2631	1.251E-04
    4.2645	1.231E-04
    4.2658	1.219E-04
    4.2672	1.208E-04
    4.2685	1.188E-04
    4.2699	1.153E-04
    4.2712	1.114E-04
    4.2726	1.075E-04
    4.2739	1.035E-04
    4.2753	1.003E-04
    4.2766	9.823E-05
    4.2780	9.702E-05
    4.2793	9.617E-05
    4.2807	9.643E-05
    4.2821	9.804E-05
    4.2834	9.984E-05
    4.2848	1.009E-04
    4.2861	1.016E-04
    4.2875	1.024E-04
    4.2888	1.029E-04
    4.2902	1.032E-04
    4.2915	1.039E-04
    4.2929	1.046E-04
    4.2942	1.046E-04
    4.2956	1.041E-04
    4.2969	1.037E-04
    4.2983	1.032E-04
    4.2996	1.015E-04
    4.3010	9.953E-05
    4.3023	9.715E-05
    4.3037	9.365E-05
    4.3050	8.988E-05
    4.3064	8.630E-05
    4.3077	8.303E-05
    4.3091	7.994E-05
    4.3104	7.799E-05
    4.3118	7.635E-05
    4.3131	7.602E-05
    4.3145	7.641E-05
    4.3158	7.695E-05
    4.3172	7.766E-05
    4.3185	7.848E-05
    4.3199	7.844E-05
    4.3212	7.840E-05
    4.3226	7.917E-05
    4.3239	7.976E-05
    4.3253	7.930E-05
    4.3266	7.825E-05
    4.3280	7.739E-05
    4.3293	7.713E-05
    4.3307	7.682E-05
    4.3320	7.599E-05
    4.3334	7.513E-05
    4.3348	7.483E-05
    4.3361	7.547E-05
    4.3375	7.645E-05
    4.3388	7.704E-05
    4.3402	7.678E-05
    4.3415	7.574E-05
    4.3429	7.457E-05
    4.3442	7.296E-05
    4.3456	7.070E-05
    4.3469	6.754E-05
    4.3483	6.436E-05
    4.3496	6.148E-05
    4.3510	5.946E-05
    4.3523	5.840E-05
    4.3537	5.849E-05
    4.3550	5.927E-05
    4.3564	6.038E-05
    4.3577	6.149E-05
    4.3591	6.288E-05
    4.3604	6.425E-05
    4.3618	6.474E-05
    4.3631	6.385E-05
    4.3645	6.197E-05
    4.3658	5.956E-05
    4.3672	5.679E-05
    4.3685	5.402E-05
    4.3699	5.104E-05
    4.3712	4.810E-05
    4.3726	4.541E-05
    4.3739	4.383E-05
    4.3753	4.312E-05
    4.3766	4.339E-05
    4.3780	4.406E-05
    4.3793	4.534E-05
    4.3807	4.673E-05
    4.3820	4.802E-05
    4.3834	4.867E-05
    4.3847	4.905E-05
    4.3861	4.915E-05
    4.3874	4.878E-05
    4.3888	4.769E-05
    4.3902	4.615E-05
    4.3915	4.452E-05
    4.3929	4.290E-05
    4.3942	4.131E-05
    4.3956	3.980E-05
    4.3969	3.932E-05
    4.3983	3.980E-05
    4.3996	4.096E-05
    4.4010	4.176E-05
    4.4023	4.217E-05
    4.4037	4.260E-05
    4.4050	4.350E-05
    4.4064	4.425E-05
    4.4077	4.428E-05
    4.4091	4.403E-05
    4.4104	4.393E-05
    4.4118	4.412E-05
    4.4131	4.539E-05
    4.4145	4.704E-05
    4.4158	4.859E-05
    4.4172	4.866E-05
    4.4185	4.776E-05
    4.4199	4.572E-05
    4.4212	4.339E-05
    4.4226	4.156E-05
    4.4239	3.951E-05
    4.4253	3.788E-05
    4.4266	3.634E-05
    4.4280	3.664E-05
    4.4293	3.786E-05
    4.4307	4.005E-05
    4.4320	4.184E-05
    4.4334	4.328E-05
    4.4347	4.425E-05
    4.4361	4.544E-05
    4.4374	4.740E-05
    4.4388	4.987E-05
    4.4401	5.254E-05
    4.4415	5.503E-05
    4.4428	5.808E-05
    4.4442	6.116E-05
    4.4456	6.431E-05
    4.4469	6.577E-05
    4.4483	6.530E-05
    4.4496	6.232E-05
    4.4510	5.828E-05
    4.4523	5.364E-05
    4.4537	4.909E-05
    4.4550	4.490E-05
    4.4564	4.132E-05
    4.4577	3.955E-05
    4.4591	3.903E-05
    4.4604	3.993E-05
    4.4618	4.069E-05
    4.4631	4.181E-05
    4.4645	4.229E-05
    4.4658	4.205E-05
    4.4672	4.025E-05
    4.4685	3.736E-05
    4.4699	3.446E-05
    4.4712	3.232E-05
    4.4726	3.048E-05
    4.4739	2.803E-05
    4.4753	2.623E-05
    4.4766	2.468E-05
    4.4780	2.412E-05
    4.4793	2.343E-05
    4.4807	2.318E-05
    4.4820	2.235E-05
    4.4834	2.161E-05
    4.4847	2.118E-05
    4.4861	2.064E-05
    4.4874	2.081E-05
    4.4888	2.052E-05
    4.4901	2.069E-05
    4.4915	2.113E-05
    4.4928	2.238E-05
    4.4942	2.330E-05
    4.4955	2.400E-05
    4.4969	2.446E-05
    4.4982	2.505E-05
    4.4996	2.528E-05
    4.5010	2.416E-05
    4.5023	2.189E-05
    4.5037	1.887E-05
    4.5050	1.596E-05
    4.5064	1.350E-05
    4.5077	1.137E-05
    4.5091	9.044E-06
    4.5104	7.549E-06
    4.5118	6.650E-06
    4.5131	6.203E-06
    4.5145	6.806E-06
    4.5158	8.630E-06
    4.5172	1.042E-05
    4.5185	1.213E-05
    4.5199	1.440E-05
    4.5212	1.684E-05
    4.5226	1.946E-05
    4.5239	2.170E-05
    4.5253	2.371E-05
    4.5266	2.512E-05
    4.5280	2.597E-05
    4.5293	2.620E-05
    4.5307	2.590E-05
    4.5320	2.624E-05
    4.5334	2.692E-05
    4.5347	2.786E-05
    4.5361	2.832E-05
    4.5374	2.834E-05
    4.5388	2.702E-05
    4.5401	2.536E-05
    4.5415	2.317E-05
    4.5428	2.038E-05
    4.5442	1.756E-05
    4.5455	1.474E-05
    4.5469	1.235E-05
    4.5482	1.144E-05
    4.5496	1.307E-05
    4.5509	1.540E-05
    4.5523	1.806E-05
    4.5536	2.076E-05
    4.5550	2.337E-05
    4.5564	2.618E-05
    4.5577	2.851E-05
    4.5591	3.005E-05
    4.5604	3.065E-05
    4.5618	3.091E-05
    4.5631	3.089E-05
    4.5645	3.089E-05
    4.5658	3.126E-05
    4.5672	3.081E-05
    4.5685	3.000E-05
    4.5699	2.857E-05
    4.5712	2.800E-05
    4.5726	2.818E-05
    4.5739	2.842E-05
    4.5753	2.768E-05
    4.5766	2.617E-05
    4.5780	2.536E-05
    4.5793	2.536E-05
    4.5807	2.620E-05
    4.5820	2.653E-05
    4.5834	2.642E-05
    4.5847	2.642E-05
    4.5861	2.714E-05
    4.5874	2.865E-05
    4.5888	3.005E-05
    4.5901	3.076E-05
    4.5915	2.918E-05
    4.5928	2.663E-05
    4.5942	2.464E-05
    4.5955	2.370E-05
    4.5969	2.339E-05
    4.5982	2.245E-05
    4.5996	2.111E-05
    4.6009	1.992E-05
    4.6023	2.037E-05
    4.6036	2.104E-05
    4.6050	2.110E-05
    4.6063	2.038E-05
    4.6077	1.906E-05
    4.6091	1.766E-05
    4.6104	1.628E-05
    4.6118	1.519E-05
    4.6131	1.419E-05
    4.6145	1.314E-05
    4.6158	1.190E-05
    4.6172	1.050E-05
    4.6185	9.992E-06
    4.6199	9.859E-06
    4.6212	9.865E-06
    4.6226	9.456E-06
    4.6239	9.250E-06
    4.6253	9.593E-06
    4.6266	1.008E-05
    4.6280	1.062E-05
    4.6293	1.047E-05
    4.6307	1.045E-05
    4.6320	1.052E-05
    4.6334	1.060E-05
    4.6347	1.015E-05
    4.6361	9.549E-06
    4.6374	9.600E-06
    4.6388	9.435E-06
    4.6401	9.178E-06
    4.6415	8.695E-06
    4.6428	8.441E-06
    4.6442	8.373E-06
    4.6455	8.769E-06
    4.6469	8.999E-06
    4.6482	8.019E-06
    4.6496	7.062E-06
    4.6509	6.122E-06
    4.6523	5.091E-06
    4.6536	3.814E-06
    4.6550	2.573E-06
    4.6563	2.234E-06
    4.6577	2.303E-06
    4.6590	3.087E-06
    4.6604	3.813E-06
    4.6617	3.818E-06
    4.6631	3.818E-06
    4.6645	3.826E-06
    4.6658	3.926E-06
    4.6672	3.085E-06
    4.6685	1.987E-06
    4.6699	1.008E-06
    4.6712	2.819E-07
    4.6726	3.480E-07
    4.6739	5.958E-07
    4.6753	8.270E-07
    4.6766	1.214E-06
    4.6780	2.044E-06
    4.6793	3.844E-06
    4.6807	5.166E-06
    4.6820	5.913E-06
    4.6834	6.549E-06
    4.6847	6.739E-06
    4.6861	6.661E-06
    4.6874	6.405E-06
    4.6888	6.002E-06
    4.6901	5.313E-06
    4.6915	5.602E-06
    4.6928	7.305E-06
    4.6942	8.901E-06
    4.6955	1.087E-05
    4.6969	1.305E-05
    4.6982	1.485E-05
    4.6996	1.499E-05
    4.7009	1.412E-05
    4.7023	1.271E-05
    4.7036	1.051E-05
